
[ev]
941673600 95
949276800 735.2
949622400 806
996364800 6728.3
996537600 6737.8
996710400 6753.5
996796800 6761.6
996883200 6767
996969600 6778.1
997056000 6797.5
997228800 6813.2
997401600 6830
997660800 6858.2
998179200 6898.2
998524800 6931.9
998697600 6948.7
999129600 7011
999216000 7020.1
999993600 7124.7
1001030400 7256.1
1001116800 7266.7
1001203200 7283
1001376000 7296.4
1001635200 7336.5
1001808000 7347.2
1002153600 7387.8
1002326400 7409.8
1002499200 7431.5
1002758400 7458.7
1002844800 7466.1
1003104000 7512.7
1003276800 7533
1003795200 7616.3
1004313600 7691.8
1004486400 7706.2
1004572800 7720.3
1004918400 7768.6
1005004800 7783.6
1005350400 7828
1005782400 7901.4
1006214400 7959.6
1009324800 8459.7
1009497600 8491.1
1009756800 8553.9
1009929600 8585.3
1010102400 8597.9
1010448000 8784.3
1011052800 8795.6
1011398400 8855.4
1012176000 9001.2
1012435200 9032.6
1012608000 9055.9
1012867200 9117.6
1013040000 9149.2
1013472000 9219.3
1013731200 9257.3
1014249600 9367.4
1014940800 9488
1016409600 9705.2
1016841600 9757.8
1017360000 9857.4
1017964800 9922.9
1018051200 9945.8
1018224000 9974
1018483200 10020.2
1018742400 10058
1019088000 10103.4
1019433600 10154.4
1020643200 10301.5
1020902400 10343.1
1020988800 10359.4
1021161600 10369.5
1021334400 10389.5
1021939200 10451.6
1022025600 10451.6
1022371200 10500
1022889600 10579.1
1022976000 10588
1023580800 10654.8
1023926400 10688.5
1024099200 10708.6
1024272000 10732
1024358400 10739.7
1024444800 10742.5
1024531200 10755.1
1024617600 10765.6
1024704000 10775
1024790400 10780.1
1024876800 10810.6
1024963200 10816.4
1025136000 10848.2
1025395200 10879.7
1025568000 10890.2
1026000000 10919
1026518400 10984.7
1027209600 11074.5
1027814400 11141.8
1028246400 11190.5
1028592000 11226
1029628800 11347.7
1029974400 11397.1
1030233600 11432.1
1030579200 11465.6
1030665600 11471.5
1030838400 11495.4
1030924800 11508.8
1031011200 11512.7
1031184000 11525.8
1031529600 11575.9
1032048000 11621
1033603200 11841.8
1034380800 11922.7
1034899200 12014.2
1035763200 12158.9
1038700800 12652.4
1041292800 13170.1
1041465600 13208.4
1041552000 13223.4
1041724800 13256.5
1041897600 13295.9
1042761600 13474.2
1042934400 13505.4
1043020800 13475.2
1043712000 13686.4
1044057600 13761.9
1045180800 13997.8
1046304000 14221.7
1046390400 14221.7
1048291200 14565.8
1048896000 14684.8
1049500800 14799.4
1049760000 14835.2
1050451200 14933.2
1051228800 15047.2
1051401600 15059.3
1052092800 15164
1052611200 15251.2
1052784000 15287.5
1061856000 16586.5
1067558400 16586.5
1070755200 18229.8
1070841600 18229.8
1071878400 18470.4
1072137600 18511.5
1072828800 18595
1074988800 19021.5
1075334400 19097.6
1075507200 19125.8
1075593600 19136.6
1079395200 19893.4
1079740800 19990.8
1079913600 20008.8
1080864000 20168.9
1082073600 20379.7
1085875200 20975.4
1091145600 21693.2
1091491200 21730.1
1091750400 21753.4
1092009600 21779.1
1092528000 21843.1
1093132800 21907.6
1093392000 21953.7
1093996800 22024.9
1094083200 22042.3
1094342400 22070.6
1094515200 22090.8
1094774400 22130
1094947200 22145.7
1095033600 22158.1
1095120000 22181
1095292800 22208.9
1095379200 22224.7
1095552000 22238
1096502400 22403.2
1096934400 22467.9
1097107200 22496.7
1099180800 22850.1
1099440000 22885.8
1099526400 22892.4
1099612800 22906
1103500800 23610.5
1103673600 23639.8
1104451200 23784.5
1104796800 23841.6
1104883200 23848.4
1105142400 23895.9
1105228800 23923
1105574400 23992.7
1105920000 24050.9
1106870400 24242.6
1107216000 24294.4
1107561600 24357
1108339200 24518.6
1108771200 24608.1
1109289600 24706
1109635200 24775.3
1110153600 24874.7
1110326400 24931.9
1111017600 25080.3
1112227200 25294
1112486400 25341
1112918400 25376.3
1113523200 25480.3
1114128000 25570.7
1114732800 25664
1114819200 25675
1114905600 25684.5
1115251200 25727.4
1115510400 25776.6
1116547200 25951.6
1117152000 26020.6
1117756800 26110.4
1120176000 26460.5
1123200000 26847.5
1123804800 26945.7
1125187200 27117.2
1127433600 27406.6
1128038400 27496.6
1128297600 27533.6
1128729600 27575.8
1129420800 27674
1129939200 27698.2
1130112000 27721.4
1130198400 27764
1130630400 27826.2
1130716800 27843.4
1130976000 27871
1131062400 27882.8
1131235200 27896.6
1131321600 27912.2
1131753600 27976.4
1132185600 28052.2
1132531200 28103.8
1132876800 28160.1
1133481600 28250
1133654400 28276.5
1134172800 28374
1134777600 28486.5
1135728000 28644.8
1135814400 28652.9
1135900800 28666.3
1136073600 28695.7
1136160000 28720.8
1136246400 28733.6
1136332800 28747
1136419200 28759.9
1136505600 28776.2
1136592000 28791.1
1136678400 28801.4
1136764800 28817
1136851200 28827.5
1136937600 28848
1137024000 28859.5
1137110400 28871.2
1137196800 28885.5
1137283200 28899.2
1137369600 28919.9
1137456000 28944.2
1137542400 28955.9
1137628800 28970.3
1137715200 28989.3
1137888000 29022.1
1137974400 29039.3
1138060800 29051.4
1138147200 29068.1
1138233600 29081.5
1138320000 29090.3
1138406400 29100.3
1138492800 29116.8
1138579200 29139.7
1138665600 29148.8
1138752000 29162.5
1138838400 29176.7
1138924800 29191.1
1139011200 29211
1139097600 29218
1139184000 29238.9
1139270400 29252.7
1139356800 29264.8
1139443200 29275.9
1139529600 29289.6
1139616000 29302.3
1139702400 29310.2
1139788800 29323.6
1139875200 29336.9
1139961600 29351.6
1140220800 29401.6
1140307200 29416.6
1140393600 29431.1
1140480000 29444.1
1140566400 29457.1
1140739200 29481.8
1140825600 29488.4
1140998400 29518.8
1141084800 29532.1
1141171200 29545.4
1141344000 29580.2
1141516800 29601
1141603200 29614.6
1141689600 29628.1
1141776000 29641.4
1141948800 29666.6
1142035200 29677.3
1142121600 29684.4
1142208000 29705.1
1142294400 29726.5
1142380800 29743.6
1142553600 29773
1142640000 29785.8
1142726400 29796.6
1142812800 29813.4
1142899200 29824.8
1142985600 29835.7
1143158400 29866.4
1143244800 29878.5
1143590400 29931.3
1143763200 29963.5
1143849600 29971.9
1143936000 29984.9
1144022400 30000.1
1144108800 30017.1
1144454400 30070.5
1144540800 30079.8
1144627200 30095.4
1144713600 30108.6
1144972800 30164.3
1145059200 30176.2
1145145600 30204.5
1145232000 30216.2
1145318400 30229.1
1145577600 30252.3
1145664000 30257.7
1145750400 30268.4
1145836800 30281
1145923200 30291.7
1146009600 30302.3
1146096000 30313.9
1146182400 30323.2
1146268800 30334.2
1146355200 30345.6
1146441600 30360.1
1146528000 30373.8
1146787200 30405.8
1146873600 30413
1146960000 30420.1
1147046400 30428.9
1147132800 30439.9
1147392000 30467.5
1147478400 30474.7
1147564800 30485.9
1147651200 30491.8
1147737600 30499.7
1148083200 30534
1148169600 30546.8
1148256000 30558.2
1148342400 30569.1
1148428800 30575
1148860800 30633.7
1148947200 30640.1
1149206400 30669.8
1149638400 30725
1149724800 30735.4
1149811200 30741.2
1149897600 30749
1149984000 30757.7
1150070400 30774.3
1150156800 30785.4
1150416000 30819.7
1150502400 30830.7
1150588800 30838.5
1150675200 30848
1150761600 30858.9
1150848000 30875.4
1150934400 30881.5
1151020800 30894.5
1151107200 30902.1
1151193600 30912.1
1151280000 30922.9
1151366400 30931.3
1151452800 30940.4
1151625600 30958.4
1151798400 30974.4
1151884800 30982.4
1151971200 30991.4
1152144000 31009.8
1152230400 31018.3
1152316800 31028
1152403200 31039.1
1152576000 31053.5
1152748800 31071.7
1152835200 31081.7
1152921600 31092.1
1153008000 31099.3
1153094400 31110.8
1153180800 31119.6
1153353600 31142.3
1153612800 31163.6
1153785600 31181.4
1153872000 31195.3
1154217600 31207.6
1154304000 31215
1154563200 31246.8
1154995200 31287.7
1155600000 31364.9
1156032000 31416.4
1156118400 31429.4
1156204800 31438
1156291200 31444.7
1156464000 31466.8
1156636800 31483.2
1156723200 31490.4
1156809600 31497.7
1156896000 31510.1
1156982400 31519.2
1157068800 31531.2
1157155200 31538.9
1157241600 31545.1
1157328000 31555.5
1157414400 31563.3
1157587200 31587.3
1157673600 31598
1157760000 31610.3
1157846400 31621.1
1157932800 31627.7
1158019200 31637.2
1158105600 31650.2
1158278400 31670
1158364800 31678.7
1158710400 31721.7
1158796800 31733
1158883200 31742.5
1158969600 31753
1159056000 31761.1
1159142400 31770.7
1159228800 31777.2
1159315200 31788.5
1159488000 31809.1
1159574400 31818.6
1159833600 31844.8
1159920000 31852.1
1160006400 31864.5
1160092800 31872.8
1160265600 31889.7
1160352000 31901.6
1160438400 31909.5
1160524800 31924.9
1160611200 31935.6
1160870400 31959.1
1160956800 31969.4
1161043200 31978.9
1161129600 31991
1161216000 32003
1161302400 32013.8
1161475200 32030.7
1161561600 32039.8
1161820800 32074
1161993600 32087.2
1162080000 32097.7
1162166400 32107.5
1162252800 32118.6
1162339200 32126.7
1162425600 32146.1
1162771200 32190.3
1162944000 32212.5
1163030400 32228.5
1163116800 32245.9
1163289600 32267.9
1163462400 32302.5
1163548800 32311.1
1163635200 32321
1163808000 32339.9
1163980800 32366.5
1164067200 32377.8
1164153600 32393.8
1164499200 32448.5
1164672000 32475.3
1164931200 32513.3
1165104000 32543.5
1165190400 32565.8
1165536000 32618.8
1165708800 32644
1165795200 32655.5
1166054400 32695.5
1166313600 32735.4
1166486400 32753.9
1166659200 32787.6
1166918400 32826
1167523200 32917.2
1167696000 32948.3
1167782400 32958.4
1168041600 32998.7
1168128000 33013.7
1168214400 33024.9
1168300800 33035.9
1168387200 33046.8
1168732800 33098.5
1168819200 33113.6
1168905600 33123.1
1168992000 33147.4
1169078400 33159.7
1169164800 33170.4
1169337600 33190.8
1169424000 33208.4
1169510400 33227.7
1169596800 33237.5
1169683200 33250.9
1169769600 33263.4
1169856000 33280.1
1169942400 33293.1
1170028800 33308.9
1170115200 33317.9
1170201600 33330.8
1170288000 33343.1
1170374400 33353.8
1170460800 33378.2
1170547200 33388.4
1170633600 33401.8
1170720000 33412.4
1170806400 33423.3
1170892800 33436.1
1170979200 33445.5
1171065600 33458.9
1171152000 33472.4
1171238400 33487.9
1171324800 33504.8
1171411200 33517.5
1171497600 33527.5
1171584000 33537.2
1171670400 33549.6
1171756800 33565.8
1171843200 33577.6
1171929600 33587.7
1172016000 33599.6
1172102400 33613.1
1172188800 33623.2
1172275200 33636.1
1172361600 33650.8
1172448000 33667.9
1172534400 33683.4
1172620800 33694.2
1172707200 33710.2
1172966400 33745.4
1173052800 33761.9
1173139200 33775.8
1173225600 33790.6
1173312000 33802.2
1173398400 33818.4
1173484800 33825.1
1173571200 33833.6
1173657600 33843.1
1173744000 33851.6
1173830400 33861.8
1173916800 33869.1
1174003200 33877.7
1174089600 33890.6
1174176000 33900.1
1174262400 33909.8
1174348800 33922.3
1174435200 33938.3
1174521600 33951.2
1174608000 33965.9
1174780800 33989.7
1174867200 34001.1
1174953600 34009.5
1175040000 34017.9
1175126400 34025.5
1175212800 34035.2
1175299200 34046.8
1175385600 34058.1
1175472000 34069.5
1175558400 34082.9
1175644800 34094.1
1175731200 34104.1
1175817600 34114.9
1175970840 34124.9
1175990400 34137.5
1176076800 34145.3
1176163200 34154.7
1176422400 34190.4
1176508800 34196.3
1176595200 34207.3
1176681600 34220.3
1176768000 34227.9
1176854400 34235.9
1176940800 34243.6
1177027200 34253.9
1177113600 34265.6
1177200000 34275.9
1177286400 34281.8
1177372800 34290.9
1177459200 34301.1
1177545600 34311.2
1177632000 34320.1
1177718400 34326.9
1177804800 34339.7
1177891200 34348.6
1177977600 34358.9
1178064000 34367.9
1178150400 34378.1
1178236800 34393.4
1178409600 34413.7
1178582400 34435.7
1178668800 34446.3
1178755200 34452.4
1178841600 34463.8
1179014400 34484.9
1179187200 34501.8
1179446400 34533.7
1179532800 34543.5
1179619200 34552.1
1179705600 34563.6
1179792000 34577.4
1179878400 34590.9
1179964800 34600.1
1180224000 34633.1
1180310400 34645.8
1180569600 34672.3
1180656000 34682.4
1180742400 34692.6
1180828800 34700.6
1180915200 34710.9
1181001600 34719.8
1181088000 34730.8
1181174400 34741.6
1181260800 34752.7
1181347200 34761.9
1181433600 34770.4
1181692800 34803.2
1181952000 34837.7
1182124800 34857.9
1182211200 34870.7
1182297600 34880.2
1182643200 34920.8
1182729600 34931.9
1182902400 34952.5
1182988800 34964.8
1183075200 34974.9
1183161600 34983.3
1183248000 34992.1
1183507200 35026.3
1183680000 35049.3
1183766400 35054.2
1183852800 35063.5
1183939200 35070.1
1184025600 35078.6
1184112000 35084.4
1184198400 35095.5
1184371200 35114.1
1184457600 35123.1
1184544000 35131.5
1184630400 35139.4
1184803200 35147.2
1184976000 35161.2
1185062400 35172.4
1185148800 35187.1
1185235200 35198.4
1185321600 35210.9
1185408000 35216.1
1185580800 35233.1
1185667200 35241.5
1185753600 35247.1
1186012800 35273.6
1186099200 35285.1
1186185600 35289.6
1186272000 35297.4
1186358400 35302.5
1186444800 35314.1
1186704000 35339.1
1186876800 35341.7
1186963200 35352.7
1187049600 35359.1
1188086400 35466.4
1188259200 35483.7
1188345600 35492.9
1188432000 35498.5
1188604800 35520.1
1188691200 35539.8
1188777600 35550.6
1188950400 35564.6
1190246400 35726.7
1191110400 35836.9
1192060800 35955.6
1192406400 35997.1
1192492800 36008.3
1192752000 36040.4
1192924800 36065.3
1193011200 36085.3
1193443200 36146.3
1195603200 36521.6
1197331200 36806.8
1198022400 36923.9
1198108800 36935.9
1198195200 36951.3
1198281600 36962.4
1198368000 36977.5
1198454400 36988.7
1198540800 37004
1198627200 37016
1198713600 37025.8
1198800000 37041.6
1198886400 37053.9
1198972800 37068.6
1199059200 37082.7
1199145600 37097.3
1199232000 37112.6
1199318400 37126.4
1199404800 37138.5
1199491200 37152.9
1199577600 37171.1
1199664000 37188.8
1199750400 37200.5
1199836800 37210.4
1199923200 37226.7
1200009600 37243.4
1200096000 37256.3
1200182400 37272.8
1200268800 37289.3
1200700800 37350.8
1200787200 37363.4
1200873600 37378.3
1200960000 37397.4
1201046400 37412.4
1201132800 37427.7
1201219200 374442
1201305600 37452.5
1201392000 37466.5
1201478400 37479.6
1201564800 37495.9
1201651200 37511.3
1201737600 37523.3
1201824000 37535.7
1201910400 37553.2
1201996800 37564.7
1202083200 37576.9
1202169600 37590.6
1202256000 37603.5
1202342400 37618.1
1202428800 37630.3
1202515200 37646.3
1202601600 37657.2
1202688000 37670.4
1202774400 37682.3
1202860800 37697.5
1202947200 37714.4
1203033600 37726.4
1203120000 37735.6
1203206400 37747.9
1203292800 37764.3
1203379200 37778.4
1203465600 37790
1203552000 37807.1
1203638400 37820.5
1203811200 37845
1203897600 37858.8
1204070400 37882.9
1204156800 37898.4
1204243200 37914.5
1204416000 37941.2
1204502400 37952.8
1204588800 37963.3
1204675200 37973
1204761600 37987.9
1204848000 38006.4
1204934400 38022.5
1205020800 38033.5
1205107200 38049.8
1205193600 38060.9
1205280000 38069.5
1205366400 38080.9
1205539200 38104.8
1205625600 38118.1
1205712000 38130.8
1205798400 38143.8
1205884800 38153.5
1205971200 38166.1
1206057600 38178.2
1206144000 38190.1
1206316800 38212.1
1206403200 38223.8
1206489600 38231.6
1206576000 38245.1
1206662400 38257.7
1206748800 38269.2
1206835200 38279.9
1206921600 38287.1
1207008000 38296.9
1207094400 38306.9
1207180800 38317.7
1207267200 38329.6
1207353600 38339.1
1207440000 38353.7
1207526400 38365.4
1207612800 38371.1
1207699200 38383.5
1207872000 38405.6
1207958400 38413
1208044800 38425
1208131200 38440
1208304000 38459.3
1208390400 38469.4
1208476800 38476.5
1208563200 38485.6
1208649600 38498
1208736000 38511.3
1208822400 38518.1
1208908800 38526.3
1208995200 38533.3
1209081600 38541.2
1209168000 38549.8
1209254400 38556.9
1209340800 38566.1
1209427200 38576.3
1209513600 38584.8
1209600000 38592.5
1209686400 38600.3
1209772800 38612.3
1209859200 38622
1209945600 38631.2
1210118400 38643.7
1210204800 38650.1
1210291200 38658.5
1210464000 38673.8
1210550400 38678.8
1210636800 38690.9
1210723200 38696.5
1210809600 38704.2
1210896000 38711.2
1211068800 38725.2
1211241600 38741.4
1211328000 38746.8
1211414400 38755.7
1211500800 38760.9
1211587200 38767.2
1211673600 38774.8
1211760000 38786.5
1211846400 38798.3
1211932800 38807.4
1212192000 38838.7
1212278400 38850.5
1212364800 38858.1
1212451200 38866.4
1212624000 38882.1
1212710400 38890.2
1212883200 38908.6
1212969600 38918.4
1213142400 38935.3
1213228800 38945.8
1213401600 38960.9
1213574400 38984
1213660800 38992.5
1213747200 39000.4
1213833600 39013.6
1214092800 39037.9
1214179200 39049.1
1214265600 39058.6
1214438400 39078
1214524800 39085.9
1214697600 39102.3
1214784000 39115
1214870400 39119.9
1214956800 39129.8
1215043200 39139.7
1215129600 39148.5
1215475200 39188.5
1215561600 39195.9
1215648000 39206.7
1215907200 39230.4
1215993600 39236.6
1216080000 39242.2
1216166400 39251.3
1216252800 39263.4
1216339200 39271.9
1216425600 39283
1216512000 39293.9
1216598400 39301.3
1216684800 39312.7
1216771200 39322.3
1216857600 39325.1
1216944000 39332.1
1217116800 39346.9
1217203200 39355.1
1217289600 39363.1
1217376000 39371.1
1217462400 39377.8
1217721600 39397.2
1217808000 39408.8
1217894400 39416
1217980800 39423.2
1218067200 39430.5
1218153600 39436.6
1218326400 39453.9
1218412800 39461.2
1218499200 39469.7
1218585600 39475.2
1218672000 39483.8
1218758400 39489.9
1218931200 39501.9
1219017600 39509.3
1219104000 39513.9
1219190400 39521.3
1219276800 39533.1
1219363200 39538.8
1219449600 39547.3
1219536000 39554.5
1219622400 39565.2
1219708800 39572.3
1219795200 39578.9
1219968000 39596.9
1220140800 39619.1
1220227200 39632.8
1220313600 39645.1
1220400000 39656.7
1220486400 39669.4
1220572800 39682.6
1220832000 39711.8
1220918400 39718.2
1221004800 39728.7
1221091200 39744.5
1221177600 39752.5
1221264000 39762.4
1221350400 39770.3
1221436800 39780.3
1221523200 39790.4
1221609600 39802.1
1221782400 39824.5
1222300800 39905.6
1222387200 39921.6
1222560000 39940
1222646400 39948.7
1222732800 39961.3
1222992000 39999.8
1223164800 40029.6
1223769600 40039.6
1223856000 40050.7
1223942400 40059.7
1224028800 40071.1
1224115200 40083
1224201600 40096
1224374400 40120
1224460800 40131.8
1224547200 40147.2
1224633600 40156.3
1224720000 40165.8
1224806400 40172.1
1224892800 40185.3
1224979200 40197.4
1225065600 40211.1
1225152000 40221.1
1225238400 40237.8
1225324800 40252.7
1225411200 40267.9
1225584000 40295.2
1225670400 40309.7
1225756800 40320.6
1225929600 40344.7
1226102400 40364.3
1226275200 40390
1226448000 40421.5
1226534400 40434.4
1226620800 40448.7
1226707200 40459.6
1226793600 40475.6
1226880000 40489.6
1226966400 40501.4
1227052800 40512.5
1227139200 40526.9
1227744000 40623.9
1227830400 40631.4
1227916800 40645.5
1228003200 40656.8
1228089600 40670.8
1228176000 40680.7
1228262400 40700.1
1228348800 40713
1228780800 40786
1229385600 40902.6
1229558400 40931.4
1229644800 40941
1230163200 41035
1230249600 41049.9
1230422400 41076.4
1230508800 41091.1
1230595200 41102.9
1230681600 41117.9
1230768000 41134
1230854400 41145.9
1230940800 41156.6
1231027200 41166.1
1231113600 41181.1
1231200000 41194
1231286400 41212.4
1231372800 41228.6
1231459200 41242.2
1231545600 41257.1
1231632000 41272
1231718400 41285
1231804800 41303.4
1231891200 41324
1231977600 41339
1232064000 41353
1232150400 41364.9
1232236800 41375.3
1232323200 41388.5
1232409600 41405.3
1232496000 41415.7
1232582400 41432.4
1232755200 41453.5
1232841600 41466.3
1232928000 41481.9
1233014400 41495.6
1233100800 41508.6
1233187200 41523.9
1233360000 41546.9
1233446400 41558.2
1233619200 41584
1233792000 41615
1234137600 41669
1234224000 41685.4
1234310400 41697.2
1234396800 41714.5
1234483200 41723.2
1234742400 41765
1234828800 41779
1234915200 41793.4
1235001600 41804.4
1235260800 41830.3
1235347200 41852
1235520000 41883.8
1235692800 41908.1
1235865600 41932.4
1235952000 41955
1236038400 41968.2
1236124800 41986.7
1236384000 42021.9
1236470400 42034.3
1236556800 42054.2
1236643200 42067.7
1236988800 42112.1
1237075200 42124.8
1237161600 42136
1237248000 42152.6
1237334400 42166.4
1237939200 42256.8
1238025600 42269.8
1238371200 42315.6
1238457600 42325.9
1238544000 42340.8
1238630400 42350.8
1238716800 42361.6
1238803200 42370.3
1238889600 42379.8
1238976000 42387.8
1239148800 42406.3
1239235200 42412
1239321600 42420.7
1239408000 42428.8
1239494400 42437.7
1239580800 42448.6
1239667200 42460.6
1239753600 42475.5
1240012800 42514.4
1240099200 42526.7
1240272000 42553
1240358400 42562.6
1240617600 42607.4
1240704000 42622.1
1240790400 42635.7
